#FORMAT	     : EMSA/MAS Spectral Data File
#VERSION     : 1.0
#TITLE       : CaCO3(0-0920eV)
#DATE        : 
#TIME        : 
#OWNER       : 
#NPOINTS     : 1023
#NCOLUMNS    : 1
#XUNITS      : eV
#YUNITS      : 
#DATATYPE    : XY
#XPERCHAN    : 1.000000e+000
#OFFSET      : -9.700000e+001
#SPECTRUM    : Spectral Data Starts Here
-9.700000e+001, 1.000000e-001
-9.600000e+001, 1.000000e-001
-9.500000e+001, 1.000000e-001
-9.400000e+001, 1.000000e-001
-9.300000e+001, 1.000000e-001
-9.200000e+001, 1.000000e-001
-9.100000e+001, 1.000000e-001
-9.000000e+001, 1.000000e-001
-8.900000e+001, 1.000000e-001
-8.800000e+001, 1.000000e-001
-8.700000e+001, 1.000000e-001
-8.600000e+001, 8.330000e+002
-8.500000e+001, 9.410010e+002
-8.400000e+001, 9.770000e+002
-8.300000e+001, 1.017000e+003
-8.200000e+001, 1.049000e+003
-8.100000e+001, 1.118000e+003
-8.000000e+001, 1.195000e+003
-7.900000e+001, 1.266000e+003
-7.800000e+001, 1.340000e+003
-7.700000e+001, 1.479000e+003
-7.600000e+001, 1.699000e+003
-7.500000e+001, 1.739000e+003
-7.400000e+001, 1.808000e+003
-7.300000e+001, 1.880000e+003
-7.200000e+001, 1.990000e+003
-7.100000e+001, 2.099000e+003
-7.000000e+001, 2.137000e+003
-6.900000e+001, 2.135000e+003
-6.800000e+001, 2.136000e+003
-6.700000e+001, 2.135000e+003
-6.600000e+001, 2.134000e+003
-6.500000e+001, 2.138000e+003
-6.400000e+001, 2.133000e+003
-6.300000e+001, 2.140000e+003
-6.200000e+001, 2.137000e+003
-6.100000e+001, 2.133000e+003
-6.000000e+001, 2.132000e+003
-5.900000e+001, 2.138000e+003
-5.800000e+001, 2.137000e+003
-5.700000e+001, 2.141000e+003
-5.600000e+001, 2.132000e+003
-5.500000e+001, 2.135000e+003
-5.400000e+001, 2.136000e+003
-5.300000e+001, 2.137000e+003
-5.200000e+001, 2.140000e+003
-5.100000e+001, 2.133000e+003
-5.000000e+001, 2.138000e+003
-4.900000e+001, 2.137000e+003
-4.800000e+001, 2.135000e+003
-4.700000e+001, 2.137000e+003
-4.600000e+001, 2.134000e+003
-4.500000e+001, 2.139000e+003
-4.400000e+001, 2.140000e+003
-4.300000e+001, 2.137000e+003
-4.200000e+001, 2.132000e+003
-4.100000e+001, 2.142000e+003
-4.000000e+001, 2.135000e+003
-3.900000e+001, 2.137000e+003
-3.800000e+001, 2.141000e+003
-3.700000e+001, 2.136000e+003
-3.600000e+001, 2.134000e+003
-3.500000e+001, 2.136000e+003
-3.400000e+001, 2.144000e+003
-3.300000e+001, 2.139000e+003
-3.200000e+001, 2.134000e+003
-3.100000e+001, 2.137000e+003
-3.000000e+001, 2.138000e+003
-2.900000e+001, 2.140000e+003
-2.800000e+001, 2.142000e+003
-2.700000e+001, 2.134000e+003
-2.600000e+001, 2.143000e+003
-2.500000e+001, 2.134000e+003
-2.400000e+001, 2.143000e+003
-2.300000e+001, 2.142000e+003
-2.200000e+001, 2.137000e+003
-2.100000e+001, 2.138000e+003
-2.000000e+001, 2.146000e+003
-1.900000e+001, 2.137000e+003
-1.800000e+001, 2.142000e+003
-1.700000e+001, 2.145000e+003
-1.600000e+001, 2.144000e+003
-1.500000e+001, 2.141000e+003
-1.400000e+001, 2.145000e+003
-1.300000e+001, 2.145000e+003
-1.200000e+001, 2.148000e+003
-1.100000e+001, 2.149000e+003
-1.000000e+001, 2.160000e+003
-9.000000e+000, 2.162000e+003
-8.000000e+000, 2.183000e+003
-7.000000e+000, 2.219000e+003
-6.000000e+000, 2.313000e+003
-5.000000e+000, 2.467000e+003
-4.000000e+000, 3.155000e+003
-3.000000e+000, 5.315000e+003
-2.000000e+000, 2.050300e+004
-1.000000e+000, 1.374120e+005
0.000000e+000, 4.939160e+005
1.000000e+000, 1.755950e+005
2.000000e+000, 2.925700e+004
3.000000e+000, 8.265000e+003
4.000000e+000, 4.991000e+003
5.000000e+000, 4.445000e+003
6.000000e+000, 4.621000e+003
7.000000e+000, 5.339000e+003
8.000000e+000, 6.120000e+003
9.000000e+000, 6.608000e+003
1.000000e+001, 6.802000e+003
1.100000e+001, 6.897000e+003
1.200000e+001, 7.337000e+003
1.300000e+001, 8.178000e+003
1.400000e+001, 9.139000e+003
1.500000e+001, 8.902000e+003
1.600000e+001, 7.796000e+003
1.700000e+001, 7.746000e+003
1.800000e+001, 8.207000e+003
1.900000e+001, 8.126000e+003
2.000000e+001, 7.962000e+003
2.100000e+001, 7.795000e+003
2.200000e+001, 7.310000e+003
2.300000e+001, 6.776000e+003
2.400000e+001, 6.395000e+003
2.500000e+001, 6.233000e+003
2.600000e+001, 6.220000e+003
2.700000e+001, 6.474000e+003
2.800000e+001, 6.854000e+003
2.900000e+001, 7.045000e+003
3.000000e+001, 7.171000e+003
3.100000e+001, 7.319000e+003
3.200000e+001, 7.691000e+003
3.300000e+001, 8.379000e+003
3.400000e+001, 9.620000e+003
3.500000e+001, 1.096300e+004
3.600000e+001, 1.176000e+004
3.700000e+001, 1.158600e+004
3.800000e+001, 1.066300e+004
3.900000e+001, 9.781000e+003
4.000000e+001, 8.948000e+003
4.100000e+001, 8.086000e+003
4.200000e+001, 7.271000e+003
4.300000e+001, 6.709000e+003
4.400000e+001, 6.329000e+003
4.500000e+001, 6.047000e+003
4.600000e+001, 5.750000e+003
4.700000e+001, 5.488000e+003
4.800000e+001, 5.258000e+003
4.900000e+001, 5.090000e+003
5.000000e+001, 4.992000e+003
5.100000e+001, 4.874000e+003
5.200000e+001, 4.765000e+003
5.300000e+001, 4.660000e+003
5.400000e+001, 4.572000e+003
5.500000e+001, 4.501000e+003
5.600000e+001, 4.419000e+003
5.700000e+001, 4.347000e+003
5.800000e+001, 4.285000e+003
5.900000e+001, 4.224000e+003
6.000000e+001, 4.172000e+003
6.100000e+001, 4.118000e+003
6.200000e+001, 4.058000e+003
6.300000e+001, 4.007000e+003
6.400000e+001, 3.963000e+003
6.500000e+001, 3.925000e+003
6.600000e+001, 3.892000e+003
6.700000e+001, 3.870000e+003
6.800000e+001, 3.848000e+003
6.900000e+001, 3.820000e+003
7.000000e+001, 3.815000e+003
7.100000e+001, 3.792000e+003
7.200000e+001, 3.769000e+003
7.300000e+001, 3.735000e+003
7.400000e+001, 3.711000e+003
7.500000e+001, 3.663000e+003
7.600000e+001, 3.634000e+003
7.700000e+001, 3.585000e+003
7.800000e+001, 3.542000e+003
7.900000e+001, 3.493000e+003
8.000000e+001, 3.452000e+003
8.100000e+001, 3.413000e+003
8.200000e+001, 3.369000e+003
8.300000e+001, 3.338000e+003
8.400000e+001, 3.289000e+003
8.500000e+001, 3.269000e+003
8.600000e+001, 3.242000e+003
8.700000e+001, 3.209000e+003
8.800000e+001, 3.182000e+003
8.900000e+001, 3.153000e+003
9.000000e+001, 3.124000e+003
9.100000e+001, 3.110000e+003
9.200000e+001, 3.082000e+003
9.300000e+001, 3.054000e+003
9.400000e+001, 3.031000e+003
9.500000e+001, 3.014000e+003
9.600000e+001, 2.986000e+003
9.700000e+001, 2.967000e+003
9.800000e+001, 2.949000e+003
9.900000e+001, 2.932000e+003
1.000000e+002, 2.916000e+003
1.010000e+002, 2.904000e+003
1.020000e+002, 2.878000e+003
1.030000e+002, 2.868000e+003
1.040000e+002, 2.848000e+003
1.050000e+002, 2.836000e+003
1.060000e+002, 2.828000e+003
1.070000e+002, 2.806000e+003
1.080000e+002, 2.796000e+003
1.090000e+002, 2.779000e+003
1.100000e+002, 2.771000e+003
1.110000e+002, 2.759000e+003
1.120000e+002, 2.754000e+003
1.130000e+002, 2.733000e+003
1.140000e+002, 2.720000e+003
1.150000e+002, 2.708000e+003
1.160000e+002, 2.703000e+003
1.170000e+002, 2.687000e+003
1.180000e+002, 2.680000e+003
1.190000e+002, 2.668000e+003
1.200000e+002, 2.657000e+003
1.210000e+002, 2.649000e+003
1.220000e+002, 2.633000e+003
1.230000e+002, 2.626000e+003
1.240000e+002, 2.624000e+003
1.250000e+002, 2.186800e+004
1.260000e+002, 5.389100e+004
1.270000e+002, 7.257510e+004
1.280000e+002, 1.065220e+005
1.290000e+002, 1.140410e+005
1.300000e+002, 1.121710e+005
1.310000e+002, 1.131560e+005
1.320000e+002, 1.144300e+005
1.330000e+002, 1.181710e+005
1.340000e+002, 1.213850e+005
1.350000e+002, 1.244430e+005
1.360000e+002, 1.306650e+005
1.370000e+002, 1.379570e+005
1.380000e+002, 1.565390e+005
1.390000e+002, 1.577720e+005
1.400000e+002, 1.693140e+005
1.410000e+002, 1.717090e+005
1.420000e+002, 1.787540e+005
1.430000e+002, 1.851380e+005
1.440000e+002, 1.810180e+005
1.450000e+002, 1.780640e+005
1.460000e+002, 1.739630e+005
1.470000e+002, 1.714580e+005
1.480000e+002, 1.681230e+005
1.490000e+002, 1.657040e+005
1.500000e+002, 1.628280e+005
1.510000e+002, 1.600010e+005
1.520000e+002, 1.576600e+005
1.530000e+002, 1.546900e+005
1.540000e+002, 1.519820e+005
1.550000e+002, 1.511680e+005
1.560000e+002, 1.482670e+005
1.570000e+002, 1.455830e+005
1.580000e+002, 1.424910e+005
1.590000e+002, 1.418590e+005
1.600000e+002, 1.381000e+005
1.610000e+002, 1.364530e+005
1.620000e+002, 1.340350e+005
1.630000e+002, 1.323320e+005
1.640000e+002, 1.302270e+005
1.650000e+002, 1.280810e+005
1.660000e+002, 1.257370e+005
1.670000e+002, 1.239860e+005
1.680000e+002, 1.215720e+005
1.690000e+002, 1.195540e+005
1.700000e+002, 1.182750e+005
1.710000e+002, 1.163610e+005
1.720000e+002, 1.137620e+005
1.730000e+002, 1.125590e+005
1.740000e+002, 1.105420e+005
1.750000e+002, 1.084380e+005
1.760000e+002, 1.068180e+005
1.770000e+002, 1.054410e+005
1.780000e+002, 1.038530e+005
1.790000e+002, 1.025280e+005
1.800000e+002, 1.008640e+005
1.810000e+002, 9.919100e+004
1.820000e+002, 9.784100e+004
1.830000e+002, 9.632500e+004
1.840000e+002, 9.494600e+004
1.850000e+002, 9.388900e+004
1.860000e+002, 9.183400e+004
1.870000e+002, 9.098010e+004
1.880000e+002, 9.010000e+004
1.890000e+002, 8.945300e+004
1.900000e+002, 8.789000e+004
1.910000e+002, 8.573010e+004
1.920000e+002, 8.503800e+004
1.930000e+002, 8.409900e+004
1.940000e+002, 8.308800e+004
1.950000e+002, 8.185600e+004
1.960000e+002, 8.112900e+004
1.970000e+002, 7.998600e+004
1.980000e+002, 7.923810e+004
1.990000e+002, 7.803200e+004
2.000000e+002, 7.740900e+004
2.010000e+002, 7.628800e+004
2.020000e+002, 7.546600e+004
2.030000e+002, 7.435600e+004
2.040000e+002, 7.329710e+004
2.050000e+002, 7.281900e+004
2.060000e+002, 7.127200e+004
2.070000e+002, 7.106800e+004
2.080000e+002, 7.035400e+004
2.090000e+002, 6.944510e+004
2.100000e+002, 6.859010e+004
2.110000e+002, 6.702000e+004
2.120000e+002, 6.671200e+004
2.130000e+002, 6.565100e+004
2.140000e+002, 6.487400e+004
2.150000e+002, 6.434500e+004
2.160000e+002, 6.360200e+004
2.170000e+002, 6.285800e+004
2.180000e+002, 6.204200e+004
2.190000e+002, 6.146500e+004
2.200000e+002, 6.042500e+004
2.210000e+002, 5.989600e+004
2.220000e+002, 5.952800e+004
2.230000e+002, 5.847300e+004
2.240000e+002, 5.782300e+004
2.250000e+002, 5.686500e+004
2.260000e+002, 5.642900e+004
2.270000e+002, 5.592100e+004
2.280000e+002, 5.515700e+004
2.290000e+002, 5.454800e+004
2.300000e+002, 5.349200e+004
2.310000e+002, 5.314100e+004
2.320000e+002, 5.245900e+004
2.330000e+002, 5.206400e+004
2.340000e+002, 5.163100e+004
2.350000e+002, 5.109600e+004
2.360000e+002, 5.000810e+004
2.370000e+002, 4.990300e+004
2.380000e+002, 4.969700e+004
2.390000e+002, 4.839600e+004
2.400000e+002, 4.796600e+004
2.410000e+002, 4.780000e+004
2.420000e+002, 4.698900e+004
2.430000e+002, 4.644400e+004
2.440000e+002, 4.595600e+004
2.450000e+002, 4.559000e+004
2.460000e+002, 4.497800e+004
2.470000e+002, 4.437200e+004
2.480000e+002, 4.400400e+004
2.490000e+002, 4.369800e+004
2.500000e+002, 4.365800e+004
2.510000e+002, 4.254400e+004
2.520000e+002, 4.217200e+004
2.530000e+002, 4.188700e+004
2.540000e+002, 4.155600e+004
2.550000e+002, 4.132500e+004
2.560000e+002, 4.102400e+004
2.570000e+002, 4.042300e+004
2.580000e+002, 4.026200e+004
2.590000e+002, 3.962000e+004
2.600000e+002, 3.952800e+004
2.610000e+002, 3.888100e+004
2.620000e+002, 3.866100e+004
2.630000e+002, 3.806900e+004
2.640000e+002, 3.801800e+004
2.650000e+002, 3.753200e+004
2.660000e+002, 3.683600e+004
2.670000e+002, 3.697800e+004
2.680000e+002, 3.619700e+004
2.690000e+002, 3.588100e+004
2.700000e+002, 3.599300e+004
2.710000e+002, 3.544500e+004
2.720000e+002, 3.523500e+004
2.730000e+002, 3.522400e+004
2.740000e+002, 3.456100e+004
2.750000e+002, 3.405600e+004
2.760000e+002, 3.386700e+004
2.770000e+002, 3.333700e+004
2.780000e+002, 3.315100e+004
2.790000e+002, 3.317400e+004
2.800000e+002, 3.258500e+004
2.810000e+002, 3.177500e+004
2.820000e+002, 3.200700e+004
2.830000e+002, 3.216500e+004
2.840000e+002, 3.277000e+004
2.850000e+002, 3.238000e+004
2.860000e+002, 3.183500e+004
2.870000e+002, 3.257100e+004
2.880000e+002, 3.451100e+004
2.890000e+002, 3.599400e+004
2.900000e+002, 3.501600e+004
2.910000e+002, 3.238400e+004
2.920000e+002, 3.177400e+004
2.930000e+002, 3.197200e+004
2.940000e+002, 3.232800e+004
2.950000e+002, 3.221600e+004
2.960000e+002, 3.256300e+004
2.970000e+002, 3.303200e+004
2.980000e+002, 3.340500e+004
2.990000e+002, 3.403900e+004
3.000000e+002, 3.432500e+004
3.010000e+002, 3.345100e+004
3.020000e+002, 3.195400e+004
3.030000e+002, 3.085900e+004
3.040000e+002, 2.981900e+004
3.050000e+002, 2.926300e+004
3.060000e+002, 2.893500e+004
3.070000e+002, 2.866800e+004
3.080000e+002, 2.851200e+004
3.090000e+002, 2.810700e+004
3.100000e+002, 2.782800e+004
3.110000e+002, 2.747700e+004
3.120000e+002, 2.724800e+004
3.130000e+002, 2.708000e+004
3.140000e+002, 2.686300e+004
3.150000e+002, 2.682200e+004
3.160000e+002, 2.653400e+004
3.170000e+002, 2.642200e+004
3.180000e+002, 2.622400e+004
3.190000e+002, 2.608400e+004
3.200000e+002, 2.601600e+004
3.210000e+002, 2.578700e+004
3.220000e+002, 2.557700e+004
3.230000e+002, 2.533300e+004
3.240000e+002, 2.531900e+004
3.250000e+002, 2.512400e+004
3.260000e+002, 2.511600e+004
3.270000e+002, 2.492100e+004
3.280000e+002, 2.449400e+004
3.290000e+002, 2.449600e+004
3.300000e+002, 2.425900e+004
3.310000e+002, 2.424100e+004
3.320000e+002, 2.407800e+004
3.330000e+002, 2.346800e+004
3.340000e+002, 2.364500e+004
3.350000e+002, 2.332000e+004
3.360000e+002, 2.323300e+004
3.370000e+002, 2.294400e+004
3.380000e+002, 2.257400e+004
3.390000e+002, 2.243400e+004
3.400000e+002, 2.261100e+004
3.410000e+002, 2.234700e+004
3.420000e+002, 2.259800e+004
3.430000e+002, 2.272800e+004
3.440000e+002, 2.590900e+004
3.450000e+002, 3.728600e+004
3.460000e+002, 5.464000e+004
3.470000e+002, 7.235010e+004
3.480000e+002, 7.685700e+004
3.490000e+002, 6.989000e+004
3.500000e+002, 8.214500e+004
3.510000e+002, 9.925300e+004
3.520000e+002, 6.917500e+004
3.530000e+002, 4.457600e+004
3.540000e+002, 3.718500e+004
3.550000e+002, 3.456400e+004
3.560000e+002, 3.372000e+004
3.570000e+002, 3.338000e+004
3.580000e+002, 3.396100e+004
3.590000e+002, 3.406700e+004
3.600000e+002, 3.342100e+004
3.610000e+002, 3.326900e+004
3.620000e+002, 3.324600e+004
3.630000e+002, 3.386600e+004
3.640000e+002, 3.415700e+004
3.650000e+002, 3.455400e+004
3.660000e+002, 3.421800e+004
3.670000e+002, 3.366400e+004
3.680000e+002, 3.554500e+004
3.690000e+002, 3.501000e+004
3.700000e+002, 3.563200e+004
3.710000e+002, 3.541500e+004
3.720000e+002, 3.540500e+004
3.730000e+002, 3.483600e+004
3.740000e+002, 3.516100e+004
3.750000e+002, 3.487600e+004
3.760000e+002, 3.464800e+004
3.770000e+002, 3.497900e+004
3.780000e+002, 3.565800e+004
3.790000e+002, 3.553100e+004
3.800000e+002, 3.575900e+004
3.810000e+002, 3.652600e+004
3.820000e+002, 3.623700e+004
3.830000e+002, 3.620700e+004
3.840000e+002, 3.620500e+004
3.850000e+002, 3.562500e+004
3.860000e+002, 3.501800e+004
3.870000e+002, 3.469600e+004
3.880000e+002, 3.422200e+004
3.890000e+002, 3.332000e+004
3.900000e+002, 3.262800e+004
3.910000e+002, 3.196800e+004
3.920000e+002, 3.173100e+004
3.930000e+002, 3.121300e+004
3.940000e+002, 3.059900e+004
3.950000e+002, 3.050600e+004
3.960000e+002, 3.043900e+004
3.970000e+002, 2.999100e+004
3.980000e+002, 3.018300e+004
3.990000e+002, 3.030600e+004
4.000000e+002, 3.040700e+004
4.010000e+002, 3.061500e+004
4.020000e+002, 3.058300e+004
4.030000e+002, 3.069000e+004
4.040000e+002, 3.044200e+004
4.050000e+002, 3.043800e+004
4.060000e+002, 3.051600e+004
4.070000e+002, 3.075200e+004
4.080000e+002, 3.045700e+004
4.090000e+002, 3.055100e+004
4.100000e+002, 3.062700e+004
4.110000e+002, 3.068000e+004
4.120000e+002, 3.038400e+004
4.130000e+002, 3.038700e+004
4.140000e+002, 3.050600e+004
4.150000e+002, 2.962400e+004
4.160000e+002, 2.990000e+004
4.170000e+002, 2.944000e+004
4.180000e+002, 2.894600e+004
4.190000e+002, 2.877500e+004
4.200000e+002, 2.878000e+004
4.210000e+002, 2.889300e+004
4.220000e+002, 2.861700e+004
4.230000e+002, 2.829500e+004
4.240000e+002, 2.800700e+004
4.250000e+002, 2.770300e+004
4.260000e+002, 2.774800e+004
4.270000e+002, 2.737900e+004
4.280000e+002, 2.704800e+004
4.290000e+002, 2.697500e+004
4.300000e+002, 2.667500e+004
4.310000e+002, 2.633700e+004
4.320000e+002, 2.630400e+004
4.330000e+002, 2.627500e+004
4.340000e+002, 2.612900e+004
4.350000e+002, 2.639100e+004
4.360000e+002, 2.719500e+004
4.370000e+002, 2.777100e+004
4.380000e+002, 2.855600e+004
4.390000e+002, 2.832200e+004
4.400000e+002, 2.766700e+004
4.410000e+002, 2.734000e+004
4.420000e+002, 2.674200e+004
4.430000e+002, 2.659300e+004
4.440000e+002, 2.660400e+004
4.450000e+002, 2.615100e+004
4.460000e+002, 2.631600e+004
4.470000e+002, 2.618100e+004
4.480000e+002, 2.598400e+004
4.490000e+002, 2.626500e+004
4.500000e+002, 2.600200e+004
4.510000e+002, 2.607500e+004
4.520000e+002, 2.584200e+004
4.530000e+002, 2.582500e+004
4.540000e+002, 2.504900e+004
4.550000e+002, 2.479600e+004
4.560000e+002, 2.500100e+004
4.570000e+002, 2.490600e+004
4.580000e+002, 2.429400e+004
4.590000e+002, 2.475600e+004
4.600000e+002, 2.438000e+004
4.610000e+002, 2.408800e+004
4.620000e+002, 2.413100e+004
4.630000e+002, 2.369800e+004
4.640000e+002, 2.381700e+004
4.650000e+002, 2.337300e+004
4.660000e+002, 2.360200e+004
4.670000e+002, 2.333700e+004
4.680000e+002, 2.302600e+004
4.690000e+002, 2.280000e+004
4.700000e+002, 2.309900e+004
4.710000e+002, 2.267800e+004
4.720000e+002, 2.261400e+004
4.730000e+002, 2.271300e+004
4.740000e+002, 2.255000e+004
4.750000e+002, 2.235700e+004
4.760000e+002, 2.227400e+004
4.770000e+002, 2.219900e+004
4.780000e+002, 2.182200e+004
4.790000e+002, 2.192100e+004
4.800000e+002, 2.211500e+004
4.810000e+002, 2.178700e+004
4.820000e+002, 2.187000e+004
4.830000e+002, 2.172000e+004
4.840000e+002, 2.169000e+004
4.850000e+002, 2.137300e+004
4.860000e+002, 2.177500e+004
4.870000e+002, 2.187400e+004
4.880000e+002, 2.136500e+004
4.890000e+002, 2.189100e+004
4.900000e+002, 2.172500e+004
4.910000e+002, 2.125200e+004
4.920000e+002, 2.119400e+004
4.930000e+002, 2.093700e+004
4.940000e+002, 2.109100e+004
4.950000e+002, 2.074600e+004
4.960000e+002, 2.062700e+004
4.970000e+002, 2.028100e+004
4.980000e+002, 2.015400e+004
4.990000e+002, 1.999600e+004
5.000000e+002, 1.966100e+004
5.010000e+002, 1.968200e+004
5.020000e+002, 1.962700e+004
5.030000e+002, 1.937200e+004
5.040000e+002, 1.939000e+004
5.050000e+002, 1.930200e+004
5.060000e+002, 1.912500e+004
5.070000e+002, 1.895700e+004
5.080000e+002, 1.896600e+004
5.090000e+002, 1.905200e+004
5.100000e+002, 1.873800e+004
5.110000e+002, 1.845800e+004
5.120000e+002, 1.842300e+004
5.130000e+002, 1.818800e+004
5.140000e+002, 1.834000e+004
5.150000e+002, 1.832500e+004
5.160000e+002, 1.800800e+004
5.170000e+002, 1.823800e+004
5.180000e+002, 1.797000e+004
5.190000e+002, 1.794900e+004
5.200000e+002, 1.811800e+004
5.210000e+002, 1.780000e+004
5.220000e+002, 1.747100e+004
5.230000e+002, 1.764900e+004
5.240000e+002, 1.779900e+004
5.250000e+002, 1.749600e+004
5.260000e+002, 1.738800e+004
5.270000e+002, 1.745100e+004
5.280000e+002, 1.756900e+004
5.290000e+002, 1.752300e+004
5.300000e+002, 1.801500e+004
5.310000e+002, 1.935600e+004
5.320000e+002, 2.214400e+004
5.330000e+002, 2.351300e+004
5.340000e+002, 2.196200e+004
5.350000e+002, 2.120600e+004
5.360000e+002, 2.150900e+004
5.370000e+002, 2.196900e+004
5.380000e+002, 2.124800e+004
5.390000e+002, 2.129300e+004
5.400000e+002, 2.098600e+004
5.410000e+002, 2.054200e+004
5.420000e+002, 1.988400e+004
5.430000e+002, 1.976100e+004
5.440000e+002, 1.979500e+004
5.450000e+002, 1.949400e+004
5.460000e+002, 1.917000e+004
5.470000e+002, 1.885600e+004
5.480000e+002, 1.913100e+004
5.490000e+002, 1.901300e+004
5.500000e+002, 1.950900e+004
5.510000e+002, 1.973000e+004
5.520000e+002, 1.969000e+004
5.530000e+002, 1.987000e+004
5.540000e+002, 1.956700e+004
5.550000e+002, 1.935400e+004
5.560000e+002, 1.895700e+004
5.570000e+002, 1.854500e+004
5.580000e+002, 1.833400e+004
5.590000e+002, 1.797400e+004
5.600000e+002, 1.825400e+004
5.610000e+002, 1.809200e+004
5.620000e+002, 1.820000e+004
5.630000e+002, 1.808800e+004
5.640000e+002, 1.804100e+004
5.650000e+002, 1.793000e+004
5.660000e+002, 1.768600e+004
5.670000e+002, 1.734900e+004
5.680000e+002, 1.773700e+004
5.690000e+002, 1.757100e+004
5.700000e+002, 1.752700e+004
5.710000e+002, 1.770000e+004
5.720000e+002, 1.763300e+004
5.730000e+002, 1.774700e+004
5.740000e+002, 1.741100e+004
5.750000e+002, 1.751500e+004
5.760000e+002, 1.733000e+004
5.770000e+002, 1.762300e+004
5.780000e+002, 1.730700e+004
5.790000e+002, 1.731600e+004
5.800000e+002, 1.730500e+004
5.810000e+002, 1.707100e+004
5.820000e+002, 1.693200e+004
5.830000e+002, 1.698500e+004
5.840000e+002, 1.682300e+004
5.850000e+002, 1.677700e+004
5.860000e+002, 1.669800e+004
5.870000e+002, 1.656200e+004
5.880000e+002, 1.619300e+004
5.890000e+002, 1.648100e+004
5.900000e+002, 1.627300e+004
5.910000e+002, 1.633300e+004
5.920000e+002, 1.624400e+004
5.930000e+002, 1.638900e+004
5.940000e+002, 1.613700e+004
5.950000e+002, 1.612000e+004
5.960000e+002, 1.587700e+004
5.970000e+002, 1.591400e+004
5.980000e+002, 1.571800e+004
5.990000e+002, 1.601500e+004
6.000000e+002, 1.566900e+004
6.010000e+002, 1.547300e+004
6.020000e+002, 1.544600e+004
6.030000e+002, 1.575600e+004
6.040000e+002, 1.561200e+004
6.050000e+002, 1.519300e+004
6.060000e+002, 1.502900e+004
6.070000e+002, 1.520900e+004
6.080000e+002, 1.537800e+004
6.090000e+002, 1.495400e+004
6.100000e+002, 1.530100e+004
6.110000e+002, 1.502200e+004
6.120000e+002, 1.490700e+004
6.130000e+002, 1.476200e+004
6.140000e+002, 1.477700e+004
6.150000e+002, 1.477200e+004
6.160000e+002, 1.481800e+004
6.170000e+002, 1.455700e+004
6.180000e+002, 1.447800e+004
6.190000e+002, 1.438500e+004
6.200000e+002, 1.426900e+004
6.210000e+002, 1.442100e+004
6.220000e+002, 1.414800e+004
6.230000e+002, 1.392200e+004
6.240000e+002, 1.399600e+004
6.250000e+002, 1.400200e+004
6.260000e+002, 1.412800e+004
6.270000e+002, 1.393500e+004
6.280000e+002, 1.394700e+004
6.290000e+002, 1.365800e+004
6.300000e+002, 1.344700e+004
6.310000e+002, 1.329600e+004
6.320000e+002, 1.356900e+004
6.330000e+002, 1.361700e+004
6.340000e+002, 1.357500e+004
6.350000e+002, 1.335000e+004
6.360000e+002, 1.296600e+004
6.370000e+002, 1.342600e+004
6.380000e+002, 1.341800e+004
6.390000e+002, 1.328200e+004
6.400000e+002, 1.303300e+004
6.410000e+002, 1.293700e+004
6.420000e+002, 1.309600e+004
6.430000e+002, 1.297700e+004
6.440000e+002, 1.306600e+004
6.450000e+002, 1.289300e+004
6.460000e+002, 1.283900e+004
6.470000e+002, 1.285100e+004
6.480000e+002, 1.277700e+004
6.490000e+002, 1.274600e+004
6.500000e+002, 1.280400e+004
6.510000e+002, 1.266600e+004
6.520000e+002, 1.252800e+004
6.530000e+002, 1.242700e+004
6.540000e+002, 1.228900e+004
6.550000e+002, 1.232700e+004
6.560000e+002, 1.224300e+004
6.570000e+002, 1.245200e+004
6.580000e+002, 1.226400e+004
6.590000e+002, 1.220100e+004
6.600000e+002, 1.206100e+004
6.610000e+002, 1.211800e+004
6.620000e+002, 1.204400e+004
6.630000e+002, 1.187600e+004
6.640000e+002, 1.204600e+004
6.650000e+002, 1.172400e+004
6.660000e+002, 1.205700e+004
6.670000e+002, 1.182000e+004
6.680000e+002, 1.163200e+004
6.690000e+002, 1.174000e+004
6.700000e+002, 1.163000e+004
6.710000e+002, 1.167600e+004
6.720000e+002, 1.151000e+004
6.730000e+002, 1.144300e+004
6.740000e+002, 1.133800e+004
6.750000e+002, 1.140300e+004
6.760000e+002, 1.128000e+004
6.770000e+002, 1.139300e+004
6.780000e+002, 1.113500e+004
6.790000e+002, 1.117800e+004
6.800000e+002, 1.106400e+004
6.810000e+002, 1.111200e+004
6.820000e+002, 1.109700e+004
6.830000e+002, 1.107500e+004
6.840000e+002, 1.090900e+004
6.850000e+002, 1.094400e+004
6.860000e+002, 1.075500e+004
6.870000e+002, 1.088600e+004
6.880000e+002, 1.077700e+004
6.890000e+002, 1.078300e+004
6.900000e+002, 1.070300e+004
6.910000e+002, 1.064300e+004
6.920000e+002, 1.048600e+004
6.930000e+002, 1.057200e+004
6.940000e+002, 1.045100e+004
6.950000e+002, 1.034100e+004
6.960000e+002, 1.039700e+004
6.970000e+002, 1.018700e+004
6.980000e+002, 1.026900e+004
6.990000e+002, 1.014300e+004
7.000000e+002, 1.043000e+004
7.010000e+002, 1.033300e+004
7.020000e+002, 1.007100e+004
7.030000e+002, 1.024800e+004
7.040000e+002, 1.014800e+004
7.050000e+002, 1.020800e+004
7.060000e+002, 1.000500e+004
7.070000e+002, 1.011700e+004
7.080000e+002, 9.842000e+003
7.090000e+002, 1.001600e+004
7.100000e+002, 9.873010e+003
7.110000e+002, 9.924000e+003
7.120000e+002, 9.766010e+003
7.130000e+002, 9.882000e+003
7.140000e+002, 9.684000e+003
7.150000e+002, 9.695000e+003
7.160000e+002, 9.917000e+003
7.170000e+002, 9.905000e+003
7.180000e+002, 9.544000e+003
7.190000e+002, 9.630010e+003
7.200000e+002, 9.468000e+003
7.210000e+002, 9.614000e+003
7.220000e+002, 9.452000e+003
7.230000e+002, 9.535000e+003
7.240000e+002, 9.340000e+003
7.250000e+002, 9.394000e+003
7.260000e+002, 9.430000e+003
7.270000e+002, 9.384000e+003
7.280000e+002, 9.346000e+003
7.290000e+002, 9.194000e+003
7.300000e+002, 9.345000e+003
7.310000e+002, 9.256000e+003
7.320000e+002, 9.151000e+003
7.330000e+002, 9.149000e+003
7.340000e+002, 8.830000e+003
7.350000e+002, 9.038000e+003
7.360000e+002, 9.150000e+003
7.370000e+002, 9.102000e+003
7.380000e+002, 9.020000e+003
7.390000e+002, 8.881000e+003
7.400000e+002, 8.818000e+003
7.410000e+002, 8.932000e+003
7.420000e+002, 8.608000e+003
7.430000e+002, 8.711000e+003
7.440000e+002, 8.690000e+003
7.450000e+002, 8.623000e+003
7.460000e+002, 8.711000e+003
7.470000e+002, 8.694010e+003
7.480000e+002, 8.537000e+003
7.490000e+002, 8.618000e+003
7.500000e+002, 8.501010e+003
7.510000e+002, 8.485000e+003
7.520000e+002, 8.496000e+003
7.530000e+002, 8.327000e+003
7.540000e+002, 8.308000e+003
7.550000e+002, 8.339000e+003
7.560000e+002, 8.402000e+003
7.570000e+002, 8.301000e+003
7.580000e+002, 8.416000e+003
7.590000e+002, 8.396010e+003
7.600000e+002, 8.278000e+003
7.610000e+002, 8.142000e+003
7.620000e+002, 8.082000e+003
7.630000e+002, 8.158000e+003
7.640000e+002, 8.074000e+003
7.650000e+002, 8.155000e+003
7.660000e+002, 8.206000e+003
7.670000e+002, 8.038000e+003
7.680000e+002, 8.100000e+003
7.690000e+002, 7.984000e+003
7.700000e+002, 7.962000e+003
7.710000e+002, 7.852010e+003
7.720000e+002, 7.875000e+003
7.730000e+002, 7.738000e+003
7.740000e+002, 7.794000e+003
7.750000e+002, 7.690000e+003
7.760000e+002, 7.710000e+003
7.770000e+002, 7.824000e+003
7.780000e+002, 7.610000e+003
7.790000e+002, 7.866000e+003
7.800000e+002, 7.661000e+003
7.810000e+002, 7.698000e+003
7.820000e+002, 7.721000e+003
7.830000e+002, 7.595000e+003
7.840000e+002, 7.431000e+003
7.850000e+002, 7.410000e+003
7.860000e+002, 7.611010e+003
7.870000e+002, 7.461000e+003
7.880000e+002, 7.530000e+003
7.890000e+002, 7.307000e+003
7.900000e+002, 7.247000e+003
7.910000e+002, 7.214000e+003
7.920000e+002, 7.320000e+003
7.930000e+002, 7.357000e+003
7.940000e+002, 7.197000e+003
7.950000e+002, 7.477000e+003
7.960000e+002, 7.174000e+003
7.970000e+002, 7.207000e+003
7.980000e+002, 7.211000e+003
7.990000e+002, 7.018000e+003
8.000000e+002, 7.195000e+003
8.010000e+002, 7.031000e+003
8.020000e+002, 7.069000e+003
8.030000e+002, 7.102000e+003
8.040000e+002, 6.898000e+003
8.050000e+002, 7.068000e+003
8.060000e+002, 6.933000e+003
8.070000e+002, 7.161000e+003
8.080000e+002, 6.966000e+003
8.090000e+002, 6.829000e+003
8.100000e+002, 6.868000e+003
8.110000e+002, 6.738000e+003
8.120000e+002, 6.946000e+003
8.130000e+002, 6.876000e+003
8.140000e+002, 6.741000e+003
8.150000e+002, 6.633000e+003
8.160000e+002, 6.796000e+003
8.170000e+002, 6.774000e+003
8.180000e+002, 6.688000e+003
8.190000e+002, 6.566000e+003
8.200000e+002, 6.685000e+003
8.210000e+002, 6.459000e+003
8.220000e+002, 6.486000e+003
8.230000e+002, 6.649000e+003
8.240000e+002, 6.458000e+003
8.250000e+002, 6.606000e+003
8.260000e+002, 6.454000e+003
8.270000e+002, 6.555000e+003
8.280000e+002, 6.368000e+003
8.290000e+002, 6.487000e+003
8.300000e+002, 6.355000e+003
8.310000e+002, 6.364000e+003
8.320000e+002, 6.651000e+003
8.330000e+002, 6.321000e+003
8.340000e+002, 6.265000e+003
8.350000e+002, 6.236000e+003
8.360000e+002, 6.268000e+003
8.370000e+002, 6.394000e+003
8.380000e+002, 6.226000e+003
8.390000e+002, 6.098000e+003
8.400000e+002, 6.244000e+003
8.410000e+002, 6.333000e+003
8.420000e+002, 6.130000e+003
8.430000e+002, 6.111000e+003
8.440000e+002, 6.186000e+003
8.450000e+002, 6.145000e+003
8.460000e+002, 6.069000e+003
8.470000e+002, 6.154000e+003
8.480000e+002, 6.006000e+003
8.490000e+002, 6.114000e+003
8.500000e+002, 5.977000e+003
8.510000e+002, 5.922010e+003
8.520000e+002, 5.913000e+003
8.530000e+002, 5.901010e+003
8.540000e+002, 6.077000e+003
8.550000e+002, 5.871000e+003
8.560000e+002, 5.941000e+003
8.570000e+002, 5.848000e+003
8.580000e+002, 5.781000e+003
8.590000e+002, 5.841000e+003
8.600000e+002, 5.792000e+003
8.610000e+002, 5.860000e+003
8.620000e+002, 5.788000e+003
8.630000e+002, 5.728000e+003
8.640000e+002, 5.797000e+003
8.650000e+002, 5.632000e+003
8.660000e+002, 5.731000e+003
8.670000e+002, 5.652000e+003
8.680000e+002, 5.521000e+003
8.690000e+002, 5.648000e+003
8.700000e+002, 5.571000e+003
8.710000e+002, 5.513000e+003
8.720000e+002, 5.650000e+003
8.730000e+002, 5.609000e+003
8.740000e+002, 5.625000e+003
8.750000e+002, 5.601000e+003
8.760000e+002, 5.411000e+003
8.770000e+002, 5.406000e+003
8.780000e+002, 5.554000e+003
8.790000e+002, 5.449000e+003
8.800000e+002, 5.487000e+003
8.810000e+002, 5.279000e+003
8.820000e+002, 5.378000e+003
8.830000e+002, 5.429000e+003
8.840000e+002, 5.453000e+003
8.850000e+002, 5.324000e+003
8.860000e+002, 5.343000e+003
8.870000e+002, 5.384000e+003
8.880000e+002, 5.316000e+003
8.890000e+002, 5.244000e+003
8.900000e+002, 5.341000e+003
8.910000e+002, 5.281000e+003
8.920000e+002, 5.160000e+003
8.930000e+002, 5.124000e+003
8.940000e+002, 5.319000e+003
8.950000e+002, 5.111000e+003
8.960000e+002, 5.256000e+003
8.970000e+002, 5.138000e+003
8.980000e+002, 5.206000e+003
8.990000e+002, 5.081000e+003
9.000000e+002, 5.118000e+003
9.010000e+002, 5.253000e+003
9.020000e+002, 5.153000e+003
9.030000e+002, 4.898000e+003
9.040000e+002, 5.148000e+003
9.050000e+002, 5.069000e+003
9.060000e+002, 5.144000e+003
9.070000e+002, 5.054000e+003
9.080000e+002, 5.002000e+003
9.090000e+002, 4.975000e+003
9.100000e+002, 5.100000e+003
9.110000e+002, 5.020000e+003
9.120000e+002, 4.862000e+003
9.130000e+002, 4.864000e+003
9.140000e+002, 4.946000e+003
9.150000e+002, 4.845000e+003
9.160000e+002, 4.751000e+003
9.170000e+002, 4.833000e+003
9.180000e+002, 4.669000e+003
9.190000e+002, 4.717000e+003
9.200000e+002, 4.723000e+003
9.210000e+002, 4.737000e+003
9.220000e+002, 4.783000e+003
9.230000e+002, 4.566000e+003
9.240000e+002, 4.642000e+003
9.250000e+002, 4.533000e+003
#ENDOFDATA   : End Of Data and File